Filename:	C:\Program Files\Pyris\Data\F-Praktikum\WS1819\BA-C-04\blei_50k-m.dsd

Temperature (°C)	Heat Flow Endo Up (mW)
369.83	1.4231
369.67	1.4234
369.50	1.4262
369.33	1.4388
369.17	1.4737
369.00	1.5463
368.83	1.6694
368.67	1.8519
368.50	2.0954
368.33	2.3943
368.17	2.7372
368.00	3.1080
367.83	3.4877
367.67	3.8581
367.50	4.2008
367.33	4.5008
367.17	4.7456
367.00	4.9274
366.83	5.0410
366.67	5.0849
366.50	5.0605
366.33	4.9719
366.17	4.8243
366.00	4.6249
365.83	4.3807
365.67	4.1004
365.50	3.7914
365.33	3.4611
365.17	3.1172
365.00	2.7659
364.83	2.4128
364.67	2.0630
364.50	1.7204
364.33	1.3885
364.17	1.0699
364.00	0.7662
363.83	0.4791
363.67	0.2093
363.50	-0.0432
363.33	-0.2781
363.17	-0.4961
363.00	-0.6973
362.83	-0.8832
362.67	-1.0542
362.50	-1.2116
362.33	-1.3561
362.17	-1.4888
362.00	-1.6108
361.83	-1.7231
361.67	-1.8269
361.50	-1.9226
361.33	-2.0109
361.17	-2.0924
361.00	-2.1677
360.83	-2.2368
360.67	-2.3007
360.50	-2.3594
360.33	-2.4131
360.17	-2.4625
360.00	-2.5079
359.83	-2.5495
359.67	-2.5884
359.50	-2.6242
359.33	-2.6576
359.17	-2.6888
359.00	-2.7181
358.83	-2.7462
358.67	-2.7727
358.50	-2.7977
358.33	-2.8209
358.17	-2.8428
358.00	-2.8629
357.83	-2.8814
357.67	-2.8981
357.50	-2.9132
357.33	-2.9265
357.17	-2.9388
357.00	-2.9493
356.83	-2.9592
356.67	-2.9678
356.50	-2.9755
356.33	-2.9823
356.17	-2.9885
356.00	-2.9941
355.83	-2.9993
355.67	-3.0036
355.50	-3.0079
355.33	-3.0120
355.17	-3.0154
355.00	-3.0188
354.83	-3.0218
354.67	-3.0249
354.50	-3.0277
354.33	-3.0305
354.17	-3.0333
354.00	-3.0357
353.83	-3.0382
353.67	-3.0410
353.50	-3.0434
353.33	-3.0459
353.17	-3.0487
353.00	-3.0512
352.83	-3.0536
352.67	-3.0561
352.50	-3.0586
352.33	-3.0610
352.17	-3.0638
352.00	-3.0666
351.83	-3.0691
351.67	-3.0718
351.50	-3.0746
351.33	-3.0774
351.17	-3.0802
351.00	-3.0830
350.83	-3.0857
350.67	-3.0885
350.50	-3.0913
350.33	-3.0944
350.17	-3.0972
350.00	-3.0999
349.83	-3.1027
349.67	-3.1058
349.50	-3.1086
349.33	-3.1114
349.17	-3.1141
349.00	-3.1169
348.83	-3.1197
348.67	-3.1225
348.50	-3.1253
348.33	-3.1280
348.17	-3.1308
348.00	-3.1336
347.83	-3.1364
347.67	-3.1391
347.50	-3.1419
347.33	-3.1447
347.17	-3.1475
347.00	-3.1503
346.83	-3.1527
346.67	-3.1555
346.50	-3.1580
346.33	-3.1604
346.17	-3.1629
346.00	-3.1654
345.83	-3.1672
345.67	-3.1679
345.50	-3.1672
345.33	-3.1645
345.17	-3.1604
345.00	-3.1552
344.83	-3.1503
344.67	-3.1456
344.50	-3.1419
344.33	-3.1395
344.17	-3.1385
344.00	-3.1388
343.83	-3.1407
343.67	-3.1438
343.50	-3.1478
343.33	-3.1530
343.17	-3.1589
343.00	-3.1651
342.83	-3.1716
342.67	-3.1783
342.50	-3.1851
342.33	-3.1916
342.17	-3.1981
342.00	-3.2046
341.83	-3.2108
341.67	-3.2166
341.50	-3.2225
341.33	-3.2277
341.17	-3.2330
341.00	-3.2376
340.83	-3.2422
340.67	-3.2463
340.50	-3.2503
340.33	-3.2540
340.17	-3.2574
340.00	-3.2608
339.83	-3.2639
339.67	-3.2669
339.50	-3.2700
339.33	-3.2728
339.17	-3.2753
339.00	-3.2777
338.83	-3.2805
338.67	-3.2830
338.50	-3.2855
338.33	-3.2879
338.17	-3.2904
338.00	-3.2932
337.83	-3.2957
337.67	-3.2981
337.50	-3.3009
337.33	-3.3034
337.17	-3.3061
337.00	-3.3086
336.83	-3.3108
336.67	-3.3136
336.50	-3.3160
336.33	-3.3185
336.17	-3.3207
336.00	-3.3231
335.83	-3.3256
335.67	-3.3281
335.50	-3.3305
335.33	-3.3333
335.17	-3.3358
335.00	-3.3383
334.83	-3.3407
334.67	-3.3432
334.50	-3.3457
334.33	-3.3481
334.17	-3.3506
334.00	-3.3531
333.83	-3.3555
333.67	-3.3580
333.50	-3.3608
333.33	-3.3633
333.17	-3.3657
333.00	-3.3682
332.83	-3.3707
332.67	-3.3728
332.50	-3.3753
332.33	-3.3775
332.17	-3.3796
332.00	-3.3815
331.83	-3.3836
331.67	-3.3855
331.50	-3.3873
331.33	-3.3892
331.17	-3.3910
331.00	-3.3932
330.83	-3.3951
330.67	-3.3972
330.50	-3.3994
330.33	-3.4015
330.17	-3.4037
330.00	-3.4059
329.83	-3.4083
329.67	-3.4108
329.50	-3.4133
329.33	-3.4160
329.17	-3.4185
329.00	-3.4210
328.83	-3.4235
328.67	-3.4259
328.50	-3.4284
328.33	-3.4309
328.17	-3.4330
328.00	-3.4355
327.83	-3.4377
327.67	-3.4398
327.50	-3.4420
327.33	-3.4438
327.17	-3.4460
327.00	-3.4478
326.83	-3.4500
326.67	-3.4519
326.50	-3.4540
326.33	-3.4559
326.17	-3.4577
326.00	-3.4599
325.83	-3.4617
325.67	-3.4639
325.50	-3.4661
325.33	-3.4679
325.17	-3.4701
325.00	-3.4722
324.83	-3.4744
324.67	-3.4765
324.50	-3.4787
324.33	-3.4809
324.17	-3.4833
324.00	-3.4855
323.83	-3.4877
323.67	-3.4898
323.50	-3.4920
323.33	-3.4941
323.17	-3.4966
323.00	-3.4988
322.83	-3.5009
322.67	-3.5031
322.50	-3.5056
322.33	-3.5080
322.17	-3.5105
322.00	-3.5130
321.83	-3.5154
321.67	-3.5179
321.50	-3.5204
321.33	-3.5232
321.17	-3.5256
321.00	-3.5284
320.83	-3.5309
320.67	-3.5333
320.50	-3.5361
320.33	-3.5386
320.17	-3.5411
320.00	-3.5432
319.83	-3.5460
319.67	-3.5482
319.50	-3.5506
319.33	-3.5531
319.17	-3.5553
319.00	-3.5574
318.83	-3.5596
318.67	-3.5618
318.50	-3.5636
318.33	-3.5658
318.17	-3.5679
318.00	-3.5701
317.83	-3.5722
317.67	-3.5744
317.50	-3.5766
317.33	-3.5787
317.17	-3.5809
317.00	-3.5831
316.83	-3.5852
316.67	-3.5877
316.50	-3.5898
316.33	-3.5920
316.17	-3.5942
316.00	-3.5963
315.83	-3.5985
315.67	-3.6006
315.50	-3.6031
315.33	-3.6053
315.17	-3.6074
315.00	-3.6192
314.83	-3.7136
314.67	-4.0501
314.50	-4.8123
314.33	-6.1437
314.17	-8.1206
314.00	-10.7492
313.83	-13.9794
313.67	-17.7226
313.50	-21.8718
313.33	-26.3131
313.17	-30.9364
313.00	-35.6434
312.83	-40.3483
312.67	-44.9797
312.50	-49.4802
312.33	-53.8066
312.17	-57.9283
312.00	-61.8253
311.83	-65.4855
311.67	-68.9016
311.50	-72.0660
311.33	-74.9613
311.17	-77.5442
311.00	-79.7217
310.83	-81.3526
310.67	-82.2873
310.50	-82.4086
310.33	-81.6569
310.17	-80.0372
310.00	-77.6111
309.83	-74.4843
309.67	-70.7865
309.50	-66.6601
309.33	-62.2464
309.17	-57.6761
309.00	-53.0672
308.83	-48.5189
308.67	-44.1122
308.50	-39.9093
308.33	-35.9549
308.17	-32.2789
308.00	-28.8981
307.83	-25.8179
307.67	-23.0356
307.50	-20.5423
307.33	-18.3233
307.17	-16.3610
307.00	-14.6363
306.83	-13.1283
306.67	-11.8166
306.50	-10.6803
306.33	-9.7002
306.17	-8.8578
306.00	-8.1357
305.83	-7.5189
305.67	-6.9926
305.50	-6.5447
305.33	-6.1641
305.17	-5.8402
305.00	-5.5649
304.83	-5.3309
304.67	-5.1315
304.50	-4.9614
304.33	-4.8160
304.17	-4.6910
304.00	-4.5832
303.83	-4.4900
303.67	-4.4091
303.50	-4.3381
303.33	-4.2761
303.17	-4.2211
303.00	-4.1724
302.83	-4.1288
302.67	-4.0902
302.50	-4.0554
302.33	-4.0239
302.17	-3.9958
302.00	-3.9705
301.83	-3.9473
301.67	-3.9266
301.50	-3.9081
301.33	-3.8911
301.17	-3.8760
301.00	-3.8621
300.83	-3.8498
300.67	-3.8390
300.50	-3.8291
300.33	-3.8201
300.17	-3.8124
300.00	-3.8056
299.83	-3.7994
299.67	-3.7942
299.50	-3.7896
299.33	-3.7859
299.17	-3.7825
299.00	-3.7797
298.83	-3.7772
298.67	-3.7754
298.50	-3.7735
298.33	-3.7723
298.17	-3.7714
298.00	-3.7704
297.83	-3.7698
297.67	-3.7695
297.50	-3.7692
297.33	-3.7689
297.17	-3.7689
297.00	-3.7692
296.83	-3.7695
296.67	-3.7698
296.50	-3.7704
296.33	-3.7710
296.17	-3.7720
296.00	-3.7729
295.83	-3.7738
295.67	-3.7748
295.50	-3.7757
295.33	-3.7766
295.17	-3.7775
295.00	-3.7788
294.83	-3.7797
294.67	-3.7806
294.50	-3.7819
294.33	-3.7831
294.17	-3.7840
294.00	-3.7852
293.83	-3.7865
293.67	-3.7880
293.50	-3.7893
293.33	-3.7908
293.17	-3.7923
293.00	-3.7936
292.83	-3.7951
292.67	-3.7964
292.50	-3.7976
292.33	-3.7988
292.17	-3.8001
292.00	-3.8016
291.83	-3.8028
291.67	-3.8041
291.50	-3.8053
291.33	-3.8069
291.17	-3.8081
291.00	-3.8093
290.83	-3.8106
290.67	-3.8121
290.50	-3.8133
290.33	-3.8146
290.17	-3.8161
290.00	-3.8177
289.83	-3.8192
289.67	-3.8211
289.50	-3.8226
289.33	-3.8241
289.17	-3.8254
289.00	-3.8269
288.83	-3.8285
288.67	-3.8300
288.50	-3.8316
288.33	-3.8328
288.17	-3.8343
288.00	-3.8359
287.83	-3.8374
287.67	-3.8393
287.50	-3.8408
287.33	-3.8424
287.17	-3.8439
287.00	-3.8451
286.83	-3.8467
286.67	-3.8482
286.50	-3.8495
286.33	-3.8510
286.17	-3.8525
286.00	-3.8538
285.83	-3.8550
285.67	-3.8562
285.50	-3.8575
285.33	-3.8584
285.17	-3.8596
285.00	-3.8609
284.83	-3.8624
284.67	-3.8637
284.50	-3.8652
284.33	-3.8664
284.17	-3.8680
284.00	-3.8695
283.83	-3.8711
283.67	-3.8723
283.50	-3.8738
283.33	-3.8754
283.17	-3.8766
283.00	-3.8782
282.83	-3.8794
282.67	-3.8809
282.50	-3.8822
282.33	-3.8837
282.17	-3.8853
282.00	-3.8865
281.83	-3.8877
281.67	-3.8890
281.50	-3.8902
281.33	-3.8914
281.17	-3.8927
281.00	-3.8936
280.83	-3.8945
280.67	-3.8955
280.50	-3.8967
280.33	-3.8976
280.17	-3.8985
280.00	-3.8995
279.83	-3.9007
279.67	-3.9019
279.50	-3.9032
279.33	-3.9044
279.17	-3.9056
279.00	-3.9069
278.83	-3.9081
278.67	-3.9093
278.50	-3.9106
278.33	-3.9118
278.17	-3.9127
278.00	-3.9140
277.83	-3.9149
277.67	-3.9161
277.50	-3.9171
277.33	-3.9180
277.17	-3.9192
277.00	-3.9201
276.83	-3.9214
276.67	-3.9223
276.50	-3.9232
276.33	-3.9242
276.17	-3.9251
276.00	-3.9260
275.83	-3.9272
275.67	-3.9282
275.50	-3.9294
275.33	-3.9303
275.17	-3.9316
275.00	-3.9325
274.83	-3.9337
274.67	-3.9350
274.50	-3.9362
274.33	-3.9374
274.17	-3.9390
274.00	-3.9402
273.83	-3.9418
273.67	-3.9430
273.50	-3.9445
273.33	-3.9461
273.17	-3.9473
273.00	-3.9489
272.83	-3.9501
272.67	-3.9516
272.50	-3.9529
272.33	-3.9541
272.17	-3.9553
272.00	-3.9566
271.83	-3.9578
271.67	-3.9587
271.50	-3.9600
271.33	-3.9615
271.17	-3.9627
271.00	-3.9640
270.83	-3.9655
270.67	-3.9668
270.50	-3.9683
270.33	-3.9695
270.17	-3.9708
270.00	-3.9720
269.83	-3.9732
269.67	-3.9742
269.50	-3.9754
269.33	-3.9763
269.17	-3.9773
269.00	-3.9782
268.83	-3.9788
268.67	-3.9797
268.50	-3.9807
268.33	-3.9816
268.17	-3.9825
268.00	-3.9834
267.83	-3.9844
267.67	-3.9850
267.50	-3.9859
267.33	-3.9865
267.17	-3.9874
267.00	-3.9884
266.83	-3.9893
266.67	-3.9899
266.50	-3.9911
266.33	-3.9921
266.17	-3.9930
266.00	-3.9939
265.83	-3.9949
265.67	-3.9958
265.50	-3.9967
265.33	-3.9976
265.17	-3.9986
265.00	-3.9995
264.83	-4.0004
264.67	-4.0016
264.50	-4.0026
264.33	-4.0038
264.17	-4.0047
264.00	-4.0053
263.83	-4.0057
263.67	-4.0057
263.50	-4.0057
263.33	-4.0057
263.17	-4.0057
263.00	-4.0057
262.83	-4.0057
262.67	-4.0060
262.50	-4.0066
262.33	-4.0072
262.17	-4.0081
262.00	-4.0091
261.83	-4.0100
261.67	-4.0106
261.50	-4.0109
261.33	-4.0109
261.17	-4.0106
261.00	-4.0106
260.83	-4.0103
260.67	-4.0106
260.50	-4.0109
260.33	-4.0115
260.17	-4.0121
260.00	-4.0134
259.83	-4.0146
259.67	-4.0162
259.50	-4.0177
259.33	-4.0195
259.17	-4.0214
259.00	-4.0229
258.83	-4.0251
258.67	-4.0266
258.50	-4.0285
258.33	-4.0304
258.17	-4.0319
258.00	-4.0334
257.83	-4.0347
257.67	-4.0359
257.50	-4.0371
257.33	-4.0381
257.17	-4.0390
257.00	-4.0399
256.83	-4.0405
256.67	-4.0415
256.50	-4.0421
256.33	-4.0427
256.17	-4.0436
256.00	-4.0442
255.83	-4.0449
255.67	-4.0458
255.50	-4.0464
255.33	-4.0473
255.17	-4.0479
255.00	-4.0489
254.83	-4.0498
254.67	-4.0507
254.50	-4.0520
254.33	-4.0529
254.17	-4.0538
254.00	-4.0550
253.83	-4.0560
253.67	-4.0569
253.50	-4.0578
253.33	-4.0588
253.17	-4.0597
253.00	-4.0606
252.83	-4.0615
252.67	-4.0625
252.50	-4.0631
252.33	-4.0640
252.17	-4.0646
252.00	-4.0655
251.83	-4.0665
251.67	-4.0674
251.50	-4.0683
251.33	-4.0692
251.17	-4.0702
251.00	-4.0711
250.83	-4.0720
250.67	-4.0730
250.50	-4.0739
250.33	-4.0748
250.17	-4.0754
250.00	-4.0763
249.83	-4.0770
249.67	-4.0776
249.50	-4.0782
249.33	-4.0788
249.17	-4.0797
249.00	-4.0804
248.83	-4.0813
248.67	-4.0819
248.50	-4.0831
248.33	-4.0838
248.17	-4.0847
248.00	-4.0859
247.83	-4.0865
247.67	-4.0875
247.50	-4.0881
247.33	-4.0890
247.17	-4.0899
247.00	-4.0905
246.83	-4.0915
246.67	-4.0921
246.50	-4.0930
246.33	-4.0936
246.17	-4.0943
246.00	-4.0949
245.83	-4.0955
245.67	-4.0961
245.50	-4.0970
245.33	-4.0976
245.17	-4.0983
245.00	-4.0989
244.83	-4.0995
244.67	-4.1004
244.50	-4.1010
244.33	-4.1017
244.17	-4.1026
244.00	-4.1032
243.83	-4.1038
243.67	-4.1041
243.50	-4.1047
243.33	-4.1054
243.17	-4.1057
243.00	-4.1063
242.83	-4.1069
242.67	-4.1072
242.50	-4.1078
242.33	-4.1085
242.17	-4.1091
242.00	-4.1097
241.83	-4.1103
241.67	-4.1109
241.50	-4.1115
241.33	-4.1122
241.17	-4.1128
241.00	-4.1134
240.83	-4.1140
240.67	-4.1146
240.50	-4.1152
240.33	-4.1159
240.17	-4.1165
240.00	-4.1171
239.83	-4.1180
239.67	-4.1186
239.50	-4.1193
239.33	-4.1202
239.17	-4.1208
239.00	-4.1211
238.83	-4.1217
238.67	-4.1223
238.50	-4.1227
238.33	-4.1233
238.17	-4.1236
238.00	-4.1242
237.83	-4.1245
237.67	-4.1251
237.50	-4.1257
237.33	-4.1267
237.17	-4.1273
237.00	-4.1282
236.83	-4.1291
236.67	-4.1298
236.50	-4.1307
236.33	-4.1313
236.17	-4.1319
236.00	-4.1325
235.83	-4.1331
235.67	-4.1338
235.50	-4.1344
235.33	-4.1350
235.17	-4.1356
235.00	-4.1362
234.83	-4.1369
234.67	-4.1372
234.50	-4.1375
234.33	-4.1381
234.17	-4.1384
234.00	-4.1387
233.83	-4.1390
233.67	-4.1393
233.50	-4.1396
233.33	-4.1399
233.17	-4.1406
233.00	-4.1412
232.83	-4.1415
232.67	-4.1421
232.50	-4.1424
232.33	-4.1430
232.17	-4.1436
232.00	-4.1443
231.83	-4.1446
231.67	-4.1449
231.50	-4.1452
231.33	-4.1455
231.17	-4.1461
231.00	-4.1467
230.83	-4.1473
230.67	-4.1480
230.50	-4.1486
230.33	-4.1492
230.17	-4.1495
230.00	-4.1501
229.83	-4.1511
229.67	-4.1517
229.50	-4.1523
229.33	-4.1529
229.17	-4.1532
229.00	-4.1538
228.83	-4.1538
228.67	-4.1544
228.50	-4.1548
228.33	-4.1551
228.17	-4.1557
228.00	-4.1560
227.83	-4.1566
227.67	-4.1569
227.50	-4.1575
227.33	-4.1582
227.17	-4.1588
227.00	-4.1591
226.83	-4.1597
226.67	-4.1600
226.50	-4.1603
226.33	-4.1609
226.17	-4.1612
226.00	-4.1615
225.83	-4.1622
225.67	-4.1625
225.50	-4.1628
225.33	-4.1631
225.17	-4.1631
225.00	-4.1634
224.83	-4.1634
224.67	-4.1634
224.50	-4.1637
224.33	-4.1637
224.17	-4.1637
224.00	-4.1637
223.83	-4.1637
223.67	-4.1637
223.50	-4.1634
223.33	-4.1634
223.17	-4.1631
223.00	-4.1631
222.83	-4.1631
222.67	-4.1631
222.50	-4.1631
222.33	-4.1634
222.17	-4.1637
222.00	-4.1640
221.83	-4.1646
221.67	-4.1649
221.50	-4.1653
221.33	-4.1659
221.17	-4.1662
221.00	-4.1668
220.83	-4.1671
220.67	-4.1677
220.50	-4.1680
220.33	-4.1686
220.17	-4.1690
220.00	-4.1696
219.83	-4.1699
219.67	-4.1705
219.50	-4.1708
219.33	-4.1711
219.17	-4.1714
219.00	-4.1717
218.83	-4.1720
218.67	-4.1724
218.50	-4.1727
218.33	-4.1733
218.17	-4.1736
218.00	-4.1739
217.83	-4.1739
217.67	-4.1742
217.50	-4.1739
217.33	-4.1739
217.17	-4.1739
217.00	-4.1739
216.83	-4.1739
216.67	-4.1742
216.50	-4.1745
216.33	-4.1748
216.17	-4.1754
216.00	-4.1757
215.83	-4.1764
215.67	-4.1767
215.50	-4.1773
215.33	-4.1776
215.17	-4.1779
215.00	-4.1782
214.83	-4.1785
214.67	-4.1788
214.50	-4.1788
214.33	-4.1791
214.17	-4.1795
214.00	-4.1798
213.83	-4.1801
213.67	-4.1807
213.50	-4.1810
213.33	-4.1816
213.17	-4.1819
213.00	-4.1825
212.83	-4.1832
212.67	-4.1838
212.50	-4.1841
212.33	-4.1847
212.17	-4.1850
212.00	-4.1856
211.83	-4.1859
211.67	-4.1862
211.50	-4.1866
211.33	-4.1866
211.17	-4.1866
211.00	-4.1866
210.83	-4.1862
210.67	-4.1862
210.50	-4.1862
210.33	-4.1859
210.17	-4.1859
210.00	-4.1856
209.83	-4.1856
209.67	-4.1856
209.50	-4.1856
209.33	-4.1853
209.17	-4.1853
209.00	-4.1853
208.83	-4.1853
208.67	-4.1853
208.50	-4.1853
208.33	-4.1853
208.17	-4.1853
208.00	-4.1856
207.83	-4.1856
207.67	-4.1853
207.50	-4.1853
207.33	-4.1853
207.17	-4.1850
207.00	-4.1850
206.83	-4.1847
206.67	-4.1847
206.50	-4.1844
206.33	-4.1844
206.17	-4.1841
206.00	-4.1841
205.83	-4.1841
205.67	-4.1841
205.50	-4.1838
205.33	-4.1841
205.17	-4.1838
205.00	-4.1841
204.83	-4.1841
204.67	-4.1841
204.50	-4.1838
204.33	-4.1835
204.17	-4.1835
204.00	-4.1828
203.83	-4.1825
203.67	-4.1822
203.50	-4.1819
203.33	-4.1816
203.17	-4.1813
203.00	-4.1810
202.83	-4.1807
202.67	-4.1804
202.50	-4.1801
202.33	-4.1798
202.17	-4.1795
202.00	-4.1795
201.83	-4.1791
201.67	-4.1791
201.50	-4.1791
201.33	-4.1791
201.17	-4.1791
201.00	-4.1788
200.83	-4.1788
200.67	-4.1788
200.50	-4.1788
200.33	-4.1785
200.17	-4.1785
200.00	-4.1785
199.83	-4.1782
199.67	-4.1779
199.50	-4.1776
199.33	-4.1773
199.17	-4.1770
199.00	-4.1764
198.83	-4.1757
198.67	-4.1754
198.50	-4.1748
198.33	-4.1745
198.17	-4.1739
198.00	-4.1733
197.83	-4.1727
197.67	-4.1724
197.50	-4.1720
197.33	-4.1714
197.17	-4.1711
197.00	-4.1708
196.83	-4.1702
196.67	-4.1699
196.50	-4.1696
196.33	-4.1690
196.17	-4.1686
196.00	-4.1680
195.83	-4.1674
195.67	-4.1671
195.50	-4.1665
195.33	-4.1659
195.17	-4.1653
195.00	-4.1646
194.83	-4.1643
194.67	-4.1637
194.50	-4.1631
194.33	-4.1628
194.17	-4.1628
194.00	-4.1625
193.83	-4.1622
193.67	-4.1619
193.50	-4.1619
193.33	-4.1619
193.17	-4.1619
193.00	-4.1619
192.83	-4.1615
192.67	-4.1615
192.50	-4.1612
192.33	-4.1612
192.17	-4.1609
192.00	-4.1603
191.83	-4.1600
191.67	-4.1594
191.50	-4.1591
191.33	-4.1588
191.17	-4.1582
191.00	-4.1582
190.83	-4.1575
190.67	-4.1572
190.50	-4.1569
190.33	-4.1566
190.17	-4.1563
190.00	-4.1557
189.83	-4.1551
189.67	-4.1541
189.50	-4.1535
189.33	-4.1526
189.17	-4.1514
189.00	-4.1507
188.83	-4.1498
188.67	-4.1489
188.50	-4.1483
188.33	-4.1477
188.17	-4.1470
188.00	-4.1464
187.83	-4.1458
187.67	-4.1455
187.50	-4.1449
187.33	-4.1443
187.17	-4.1436
187.00	-4.1430
186.83	-4.1424
186.67	-4.1418
186.50	-4.1412
186.33	-4.1406
186.17	-4.1399
186.00	-4.1390
185.83	-4.1384
185.67	-4.1378
185.50	-4.1372
185.33	-4.1369
185.17	-4.1369
185.00	-4.1372
184.83	-4.1378
184.67	-4.1384
184.50	-4.1393
184.33	-4.1399
184.17	-4.1402
184.00	-4.1406
183.83	-4.1402
183.67	-4.1399
183.50	-4.1396
183.33	-4.1390
183.17	-4.1381
183.00	-4.1372
182.83	-4.1359
182.67	-4.1350
182.50	-4.1338
182.33	-4.1328
182.17	-4.1316
182.00	-4.1301
181.83	-4.1288
181.67	-4.1276
181.50	-4.1264
181.33	-4.1251
181.17	-4.1236
181.00	-4.1223
180.83	-4.1208
180.67	-4.1196
180.50	-4.1180
180.33	-4.1168
180.17	-4.1152
180.00	-4.1140
179.83	-4.1128
179.67	-4.1115
179.50	-4.1106
179.33	-4.1094
179.17	-4.1085
179.00	-4.1075
178.83	-4.1063
178.67	-4.1054
178.50	-4.1044
178.33	-4.1038
178.17	-4.1029
178.00	-4.1023
177.83	-4.1017
177.67	-4.1007
177.50	-4.1001
177.33	-4.0995
177.17	-4.0989
177.00	-4.0983
176.83	-4.0976
176.67	-4.0967
176.50	-4.0958
176.33	-4.0949
176.17	-4.0936
176.00	-4.0924
175.83	-4.0912
175.67	-4.0899
175.50	-4.0887
175.33	-4.0878
175.17	-4.0868
175.00	-4.0859
174.83	-4.0850
174.67	-4.0844
174.50	-4.0834
174.33	-4.0828
174.17	-4.0819
174.00	-4.0810
173.83	-4.0801
173.67	-4.0791
173.50	-4.0782
173.33	-4.0773
173.17	-4.0763
173.00	-4.0754
172.83	-4.0745
172.67	-4.0736
172.50	-4.0726
172.33	-4.0720
172.17	-4.0711
172.00	-4.0702
171.83	-4.0696
171.67	-4.0689
171.50	-4.0680
171.33	-4.0674
171.17	-4.0668
171.00	-4.0662
170.83	-4.0655
170.67	-4.0649
170.50	-4.0643
170.33	-4.0634
170.17	-4.0625
170.00	-4.0612
169.83	-4.0603
169.67	-4.0594
169.50	-4.0584
169.33	-4.0572
169.17	-4.0563
169.00	-4.0554
168.83	-4.0541
168.67	-4.0529
168.50	-4.0517
168.33	-4.0504
168.17	-4.0492
168.00	-4.0479
167.83	-4.0470
167.67	-4.0458
167.50	-4.0449
167.33	-4.0436
167.17	-4.0427
167.00	-4.0415
166.83	-4.0405
166.67	-4.0393
166.50	-4.0381
166.33	-4.0371
166.17	-4.0359
166.00	-4.0347
165.83	-4.0334
165.67	-4.0322
165.50	-4.0307
165.33	-4.0294
165.17	-4.0279
165.00	-4.0266
164.83	-4.0257
164.67	-4.0245
164.50	-4.0233
164.33	-4.0223
164.17	-4.0214
164.00	-4.0205
163.83	-4.0195
163.67	-4.0183
163.50	-4.0174
163.33	-4.0162
163.17	-4.0149
163.00	-4.0134
162.83	-4.0121
162.67	-4.0106
162.50	-4.0094
162.33	-4.0078
162.17	-4.0063
162.00	-4.0050
161.83	-4.0035
161.67	-4.0020
161.50	-4.0004
161.33	-3.9989
161.17	-3.9976
161.00	-3.9961
160.83	-3.9945
160.67	-3.9933
160.50	-3.9918
160.33	-3.9905
160.17	-3.9893
160.00	-3.9878
159.83	-3.9862
159.67	-3.9850
159.50	-3.9834
159.33	-3.9819
159.17	-3.9800
159.00	-3.9785
158.83	-3.9769
158.67	-3.9754
158.50	-3.9739
158.33	-3.9720
158.17	-3.9705
158.00	-3.9689
157.83	-3.9671
157.67	-3.9655
157.50	-3.9637
157.33	-3.9621
157.17	-3.9603
157.00	-3.9587
156.83	-3.9569
156.67	-3.9553
156.50	-3.9535
156.33	-3.9523
156.17	-3.9507
156.00	-3.9492
155.83	-3.9479
155.67	-3.9467
155.50	-3.9455
155.33	-3.9439
155.17	-3.9427
155.00	-3.9414
154.83	-3.9399
154.67	-3.9387
154.50	-3.9371
154.33	-3.9356
154.17	-3.9340
154.00	-3.9322
153.83	-3.9306
153.67	-3.9288
153.50	-3.9269
153.33	-3.9251
153.17	-3.9232
153.00	-3.9214
152.83	-3.9195
152.67	-3.9177
152.50	-3.9158
152.33	-3.9140
152.17	-3.9121
152.00	-3.9106
151.83	-3.9084
151.67	-3.9066
151.50	-3.9047
151.33	-3.9032
151.17	-3.9010
151.00	-3.8992
150.83	-3.8976
150.67	-3.8955
150.50	-3.8936
150.33	-3.8917
150.17	-3.8899
150.00	-3.8880
149.83	-3.8862
149.67	-3.8843
149.50	-3.8825
149.33	-3.8809
149.17	-3.8788
149.00	-3.8769
148.83	-3.8748
148.67	-3.8729
148.50	-3.8711
148.33	-3.8689
148.17	-3.8667
148.00	-3.8646
147.83	-3.8624
147.67	-3.8600
147.50	-3.8578
147.33	-3.8553
147.17	-3.8529
147.00	-3.8504
146.83	-3.8482
146.67	-3.8458
146.50	-3.8436
146.33	-3.8411
146.17	-3.8387
146.00	-3.8362
145.83	-3.8337
145.67	-3.8312
145.50	-3.8288
145.33	-3.8266
145.17	-3.8245
145.00	-3.8220
144.83	-3.8198
144.67	-3.8177
144.50	-3.8155
144.33	-3.8133
144.17	-3.8112
144.00	-3.8090
143.83	-3.8069
143.67	-3.8047
143.50	-3.8025
143.33	-3.8004
143.17	-3.7982
143.00	-3.7961
142.83	-3.7936
142.67	-3.7914
142.50	-3.7893
142.33	-3.7868
142.17	-3.7846
142.00	-3.7825
141.83	-3.7803
141.67	-3.7778
141.50	-3.7757
141.33	-3.7732
141.17	-3.7707
141.00	-3.7683
140.83	-3.7658
140.67	-3.7633
140.50	-3.7609
140.33	-3.7584
140.17	-3.7559
140.00	-3.7535
139.83	-3.7510
139.67	-3.7485
139.50	-3.7457
139.33	-3.7433
139.17	-3.7405
139.00	-3.7380
138.83	-3.7355
138.67	-3.7331
138.50	-3.7306
138.33	-3.7281
138.17	-3.7257
138.00	-3.7229
137.83	-3.7204
137.67	-3.7180
137.50	-3.7155
137.33	-3.7130
137.17	-3.7105
137.00	-3.7081
136.83	-3.7056
136.67	-3.7031
136.50	-3.7010
136.33	-3.6985
136.17	-3.6960
136.00	-3.6933
135.83	-3.6908
135.67	-3.6880
135.50	-3.6849
135.33	-3.6821
135.17	-3.6794
135.00	-3.6763
134.83	-3.6735
134.67	-3.6707
134.50	-3.6679
134.33	-3.6655
134.17	-3.6627
134.00	-3.6599
133.83	-3.6568
133.67	-3.6544
133.50	-3.6516
133.33	-3.6488
133.17	-3.6460
133.00	-3.6432
132.83	-3.6405
132.67	-3.6374
132.50	-3.6343
132.33	-3.6309
132.17	-3.6278
132.00	-3.6247
131.83	-3.6219
131.67	-3.6189
131.50	-3.6158
131.33	-3.6130
131.17	-3.6099
131.00	-3.6068
130.83	-3.6037
130.67	-3.6010
130.50	-3.5979
130.33	-3.5948
130.17	-3.5917
130.00	-3.5886
129.83	-3.5855
129.67	-3.5824
129.50	-3.5793
129.33	-3.5763
129.17	-3.5735
129.00	-3.5704
128.83	-3.5676
128.67	-3.5645
128.50	-3.5614
128.33	-3.5587
128.17	-3.5556
128.00	-3.5525
127.83	-3.5494
127.67	-3.5460
127.50	-3.5432
127.33	-3.5401
127.17	-3.5371
127.00	-3.5340
126.83	-3.5312
126.67	-3.5284
126.50	-3.5256
126.33	-3.5229
126.17	-3.5201
126.00	-3.5170
125.83	-3.5142
125.67	-3.5111
125.50	-3.5080
125.33	-3.5046
125.17	-3.5016
125.00	-3.4982
124.83	-3.4948
124.67	-3.4917
124.50	-3.4883
124.33	-3.4846
124.17	-3.4812
124.00	-3.4775
123.83	-3.4741
123.67	-3.4707
123.50	-3.4670
123.33	-3.4636
123.17	-3.4602
123.00	-3.4565
122.83	-3.4528
122.67	-3.4491
122.50	-3.4454
122.33	-3.4414
122.17	-3.4373
122.00	-3.4336
121.83	-3.4296
121.67	-3.4256
121.50	-3.4216
121.33	-3.4179
121.17	-3.4139
121.00	-3.4099
120.83	-3.4059
120.67	-3.4018
120.50	-3.3978
120.33	-3.3935
120.17	-3.3895
120.00	-3.3852
119.83	-3.3809
119.67	-3.3768
119.50	-3.3728
119.33	-3.3685
119.17	-3.3645
119.00	-3.3605
118.83	-3.3562
118.67	-3.3521
118.50	-3.3481
118.33	-3.3438
118.17	-3.3398
118.00	-3.3355
117.83	-3.3312
117.67	-3.3268
117.50	-3.3222
117.33	-3.3179
117.17	-3.3129
117.00	-3.3083
116.83	-3.3037
116.67	-3.2987
116.50	-3.2938
116.33	-3.2889
116.17	-3.2836
116.00	-3.2787
115.83	-3.2737
115.67	-3.2688
115.50	-3.2639
115.33	-3.2586
115.17	-3.2534
115.00	-3.2484
114.83	-3.2432
114.67	-3.2379
114.50	-3.2327
114.33	-3.2274
114.17	-3.2222
114.00	-3.2169
113.83	-3.2114
113.67	-3.2061
113.50	-3.2006
113.33	-3.1950
113.17	-3.1898
113.00	-3.1842
112.83	-3.1790
112.67	-3.1734
112.50	-3.1675
112.33	-3.1620
112.17	-3.1558
112.00	-3.1499
111.83	-3.1441
111.67	-3.1379
111.50	-3.1317
111.33	-3.1256
111.17	-3.1194
111.00	-3.1132
110.83	-3.1070
110.67	-3.1006
110.50	-3.0941
110.33	-3.0876
110.17	-3.0811
110.00	-3.0746
109.83	-3.0681
109.67	-3.0614
109.50	-3.0549
109.33	-3.0481
109.17	-3.0413
109.00	-3.0342
108.83	-3.0274
108.67	-3.0203
108.50	-3.0132
108.33	-3.0061
108.17	-2.9990
108.00	-2.9916
107.83	-2.9839
107.67	-2.9765
107.50	-2.9687
107.33	-2.9610
107.17	-2.9530
107.00	-2.9447
106.83	-2.9363
106.67	-2.9280
106.50	-2.9194
106.33	-2.9107
106.17	-2.9021
106.00	-2.8931
105.83	-2.8842
105.67	-2.8752
105.50	-2.8663
105.33	-2.8573
105.17	-2.8480
105.00	-2.8391
104.83	-2.8301
104.67	-2.8209
104.50	-2.8119
104.33	-2.8030
104.17	-2.7937
104.00	-2.7848
103.83	-2.7755
103.67	-2.7662
103.50	-2.7570
103.33	-2.7477
103.17	-2.7381
103.00	-2.7286
102.83	-2.7190
102.67	-2.7091
102.50	-2.6992
102.33	-2.6897
102.17	-2.6798
102.00	-2.6699
101.83	-2.6600
101.67	-2.6502
101.50	-2.6400
101.33	-2.6298
101.17	-2.6196
101.00	-2.6094
100.83	-2.5992
100.67	-2.5890
100.50	-2.5785
100.33	-2.5681
100.17	-2.5576
100.00	-2.5468
100.00	-2.5363
